import {HTMLChakraProps, chakra} from '@chakra-ui/react'

export const WGIcon: React.FC<HTMLChakraProps<'svg'>> = props => {
  return (
    <chakra.svg
      xmlns="http://www.w3.org/2000/svg"
      width="17.0667in"
      height="17.0667in"
      viewBox="0 0 1536 1536"
      //  preserveAspectRatio="xMidYMid meet"
      {...props}>
      <g id="wg-content">
        <g id="wg-drop">
          <path
            fill="currentColor"
            d="M 791.49,145.70
            C 790.64,241.08 777.00,304.53 808.93,402.23
              851.58,532.49 966.92,617.15 1043.81,725.99
              1043.81,725.99 1090.45,817.78 1090.45,817.78
              1109.37,856.46 1112.93,929.77 1121.77,958.77
              1124.91,893.43 1128.06,870.53 1113.15,806.65
              1045.29,580.59 957.25,579.13 863.56,402.23
              797.80,278.05 811.24,195.49 791.49,145.70 Z
            M 760.39,178.90
            C 756.40,276.59 699.68,415.46 640.86,493.20
              544.63,619.88 396.09,741.11 349.45,899.30
              369.62,860.65 459.34,745.10 499.25,705.19
              639.81,564.20 725.10,526.18 756.62,311.05
              762.71,265.46 770.69,228.27 760.39,178.90 Z
            M 501.77,744.89
            C 458.70,797.62 408.70,844.69 381.60,908.14
              332.86,1023.27 364.79,1156.05 440.63,1250.38
              552.20,1388.83 736.03,1420.98 899.07,1368.67
              958.52,1349.55 1015.66,1327.90 1050.95,1272.44
              1050.95,1272.44 1022.81,1291.34 1022.81,1291.34
              977.00,1321.81 953.89,1325.80 909.15,1339.88
              876.59,1350.18 831.83,1360.68 797.80,1362.78
              597.99,1374.34 396.94,1192.39 403.44,989.24
              405.54,929.14 419.00,899.10 447.99,847.42
              466.47,814.86 491.27,785.85 501.77,744.89 Z
            M 457.24,874.31
            C 408.49,1015.49 432.01,1165.72 565.01,1264.87
              603.03,1293.24 630.97,1309.83 676.36,1323.07
              605.56,1250.59 535.81,1223.07 483.50,1090.29
              439.17,978.09 474.46,941.12 457.24,874.31 Z
            M 1148.44,869.48
            C 1159.79,997.64 1108.52,1154.15 1005.99,1239.46
              1005.99,1239.46 909.15,1312.99 909.15,1312.99
              1048.44,1281.67 1170.50,1143.87 1172.40,999.32
              1172.82,956.24 1178.69,915.69 1148.44,869.48 Z"
          />
          <path
            fill="currentColor"
            d="M 924.49,641.67
            C 921.26,720.19 877.47,831.50 831.75,893.74
              757.14,995.24 641.98,1092.49 605.74,1219.42
              621.48,1188.41 690.93,1095.84 721.99,1063.73
              830.89,950.62 897.10,920.28 921.47,747.63
              926.21,711.28 932.24,681.15 924.49,641.67 Z"
          />
          <path
            fill="currentColor"
            d="M 841.24,1016.83
            C 841.24,1016.83 820.64,998.71 820.64,998.71
              820.64,998.71 832.19,1023.41 832.19,1023.41
              818.06,1026.64 808.57,1036.91 801.38,1048.96
              797.73,1055.07 794.93,1061.32 792.30,1067.90
              782.62,1092.33 773.51,1127.44 790.99,1150.30
              790.99,1150.30 767.10,1162.66 767.10,1162.66
              767.10,1162.66 776.98,1162.17 776.98,1162.17
              776.98,1162.17 794.29,1160.19 794.29,1160.19
              794.29,1179.41 802.50,1190.67 815.71,1203.84
              833.70,1221.82 862.71,1241.23 889.04,1240.93
              894.04,1240.87 897.46,1239.82 902.21,1238.45
              902.21,1238.45 907.16,1264.81 907.16,1264.81
              907.16,1264.81 912.09,1238.45 912.09,1238.45
              917.79,1239.73 919.96,1240.85 926.10,1240.93
              950.30,1241.20 976.17,1224.35 993.67,1208.83
              1005.86,1198.01 1019.83,1182.49 1020.03,1165.12
              1020.03,1165.12 1020.03,1160.19 1020.03,1160.19
              1020.03,1160.19 1048.04,1163.47 1048.04,1163.47
              1044.48,1160.64 1027.58,1151.53 1023.32,1150.30
              1025.70,1147.21 1028.02,1144.01 1029.54,1140.42
              1038.30,1119.60 1030.31,1088.07 1022.34,1067.90
              1019.38,1060.45 1017.27,1055.85 1013.11,1048.96
              1006.08,1037.29 996.77,1026.66 982.95,1023.41
              982.95,1023.41 993.67,998.71 993.67,998.71
              993.67,998.71 973.07,1016.83 973.07,1016.83
              968.93,1007.13 957.80,1001.67 948.34,998.24
              935.51,993.58 921.47,992.92 907.97,992.92
              894.20,992.92 881.74,993.27 868.44,997.60
              858.24,1000.93 845.70,1006.37 841.24,1016.83 Z
            M 937.65,1003.64
            C 937.65,1003.64 907.97,1007.76 907.97,1007.76
              898.56,1007.78 885.49,1006.06 876.68,1002.83
              880.06,1000.84 884.37,1000.44 888.21,999.68
              900.02,997.35 910.92,997.21 922.81,999.05
              927.09,999.72 934.92,1000.12 937.65,1003.64 Z
            M 865.15,1008.03
            C 871.40,1007.34 877.25,1007.74 883.27,1009.71
              890.07,1011.92 900.10,1016.76 907.16,1016.76
              919.05,1016.78 929.28,1007.69 945.06,1007.76
              947.48,1007.78 949.28,1007.74 951.65,1008.41
              960.05,1010.80 970.21,1019.49 967.48,1029.17
              966.13,1033.94 959.96,1042.22 956.95,1046.49
              956.95,1046.49 937.95,1072.85 937.95,1072.85
              934.39,1077.60 925.94,1090.23 920.34,1091.41
              914.17,1092.71 911.64,1085.93 911.30,1081.09
              911.30,1081.09 910.52,1040.72 910.52,1040.72
              910.56,1038.88 910.70,1036.71 909.66,1035.08
              907.85,1032.32 905.19,1033.22 903.95,1036.62
              903.87,1037.79 903.89,1039.49 903.95,1040.72
              903.95,1040.72 903.95,1058.85 903.95,1058.85
              903.95,1058.85 903.95,1076.97 903.95,1076.97
              903.84,1082.63 902.26,1093.60 893.97,1091.25
              887.90,1089.53 879.50,1076.46 875.54,1071.21
              875.54,1071.21 855.52,1043.20 855.52,1043.20
              853.02,1039.47 848.74,1034.18 847.53,1030.01
              844.31,1018.75 855.39,1010.22 865.15,1008.03 Z
            M 833.83,1031.11
            C 842.74,1030.89 846.16,1036.76 851.03,1043.20
              851.03,1043.20 878.66,1081.09 878.66,1081.09
              882.15,1086.13 890.93,1096.78 883.22,1101.73
              879.17,1104.44 873.50,1102.97 869.27,1101.73
              869.27,1101.73 842.07,1092.89 842.07,1092.89
              839.14,1091.93 829.21,1087.42 827.38,1091.23
              825.25,1095.62 836.92,1098.04 839.60,1098.94
              839.60,1098.94 860.20,1105.81 860.20,1105.81
              860.20,1105.81 870.08,1109.05 870.08,1109.05
              873.53,1110.46 878.07,1113.44 878.86,1117.34
              880.58,1125.60 864.46,1129.63 858.55,1131.62
              858.55,1131.62 823.12,1142.89 823.12,1142.89
              818.96,1144.18 808.84,1147.63 804.99,1147.45
              793.50,1146.89 790.06,1135.10 790.17,1125.58
              790.41,1105.50 812.18,1097.84 812.40,1078.62
              812.60,1062.64 808.97,1043.18 825.59,1033.75
              828.23,1032.25 830.89,1031.61 833.83,1031.11 Z
            M 975.54,1032.01
            C 978.78,1031.52 982.30,1031.36 985.43,1032.44
              987.96,1033.33 990.81,1035.03 992.83,1036.76
              1009.59,1051.17 997.39,1072.71 1003.86,1087.69
              1009.53,1100.84 1023.92,1109.61 1024.89,1125.58
              1025.45,1134.67 1019.85,1147.57 1009.31,1147.68
              1005.70,1147.70 998.20,1145.13 994.50,1144.05
              994.50,1144.05 960.70,1133.26 960.70,1133.26
              954.69,1131.25 939.83,1127.28 936.49,1122.26
              933.29,1117.45 937.63,1112.80 941.77,1110.60
              941.77,1110.60 976.37,1098.67 976.37,1098.67
              979.12,1097.75 988.03,1095.87 987.40,1091.92
              986.62,1087.20 976.39,1091.79 973.90,1092.62
              973.90,1092.62 947.53,1101.13 947.53,1101.13
              942.89,1102.67 936.62,1104.69 931.92,1102.25
              923.52,1097.90 931.56,1087.69 934.90,1082.74
              934.90,1082.74 960.61,1047.32 960.61,1047.32
              964.59,1042.00 969.25,1034.49 975.54,1032.01 Z
            M 807.47,1053.08
            C 807.47,1065.23 804.95,1079.77 800.17,1090.98
              800.17,1090.98 789.34,1111.58 789.34,1111.58
              787.52,1106.99 789.05,1099.92 789.83,1095.10
              791.82,1082.70 798.50,1061.86 807.47,1053.08 Z
            M 1007.67,1053.08
            C 1020.03,1070.00 1025.67,1090.87 1026.63,1111.58
              1022.61,1108.07 1020.54,1103.08 1018.19,1098.38
              1011.70,1085.45 1010.78,1083.01 1008.43,1068.73
              1007.78,1064.79 1006.30,1056.57 1007.67,1053.08 Z
            M 905.70,1102.20
            C 912.24,1101.20 911.95,1107.35 908.68,1108.87
              905.23,1110.47 900.66,1105.79 905.70,1102.20 Z
            M 895.67,1108.00
            C 902.05,1107.55 901.05,1114.12 897.98,1115.15
              894.62,1116.27 889.62,1111.56 895.67,1108.00 Z
            M 917.12,1107.89
            C 923.61,1108.09 922.29,1114.56 918.62,1115.24
              914.57,1116.02 911.52,1110.31 917.12,1107.89 Z
            M 907.16,1113.93
            C 913.11,1115.50 911.30,1121.23 907.16,1121.23
              903.29,1121.23 901.16,1115.52 907.16,1113.93 Z
            M 895.70,1120.21
            C 902.39,1120.18 901.00,1127.06 897.24,1127.57
              893.84,1128.04 890.01,1122.78 895.70,1120.21 Z
            M 916.34,1120.32
            C 923.62,1119.26 922.41,1126.54 918.65,1127.44
              915.53,1128.18 911.52,1123.65 916.34,1120.32 Z
            M 906.37,1126.16
            C 912.37,1125.94 911.91,1132.05 908.70,1133.32
              904.69,1134.89 900.44,1129.54 906.37,1126.16 Z
            M 875.03,1130.77
            C 884.37,1129.94 887.01,1135.65 883.53,1143.71
              881.43,1148.55 866.86,1167.78 862.80,1173.36
              861.30,1175.42 854.31,1183.48 857.41,1185.76
              860.68,1188.18 865.98,1179.58 867.51,1177.48
              867.51,1177.48 883.16,1156.07 883.16,1156.07
              885.87,1152.45 889.04,1147.79 893.16,1145.73
              902.32,1141.14 904.38,1149.00 904.72,1156.07
              904.72,1156.07 905.52,1166.78 905.52,1166.78
              905.52,1166.78 905.52,1203.03 905.52,1203.03
              905.52,1203.03 904.69,1216.20 904.69,1216.20
              904.67,1218.92 904.88,1221.90 903.85,1224.44
              901.09,1231.28 893.37,1233.70 886.56,1233.48
              864.71,1232.74 860.47,1208.71 847.84,1199.56
              836.05,1191.01 818.20,1193.15 807.61,1180.77
              801.41,1173.31 798.56,1159.86 807.61,1153.17
              810.36,1151.02 825.41,1145.96 829.71,1144.54
              829.71,1144.54 875.03,1130.77 875.03,1130.77 Z
            M 934.36,1130.88
            C 942.02,1129.88 960.18,1136.68 968.13,1139.31
              968.13,1139.31 993.67,1147.83 993.67,1147.83
              998.15,1149.33 1005.01,1151.39 1008.41,1154.58
              1014.54,1160.38 1013.02,1169.87 1009.46,1176.67
              1007.69,1180.06 1004.98,1182.94 1001.91,1185.23
              991.95,1192.62 975.70,1192.71 967.30,1199.24
              954.33,1209.30 949.90,1229.72 931.88,1233.12
              923.99,1234.62 913.83,1232.78 910.58,1224.44
              909.24,1221.07 909.67,1215.81 909.62,1212.08
              909.62,1212.08 908.81,1199.72 908.81,1199.72
              908.81,1199.72 908.81,1169.24 908.81,1169.24
              908.81,1169.24 909.56,1159.35 909.56,1159.35
              909.96,1153.37 909.47,1141.99 919.52,1145.06
              924.27,1146.52 927.67,1151.44 930.53,1155.23
              930.53,1155.23 946.81,1177.48 946.81,1177.48
              948.29,1179.52 953.78,1188.45 956.91,1185.94
              960.02,1183.44 953.12,1175.55 951.52,1173.36
              951.52,1173.36 931.32,1144.54 931.32,1144.54
              928.76,1139.10 927.83,1133.51 934.36,1130.88 Z
            M 815.71,1192.32
            C 832.91,1199.62 845.34,1205.94 857.96,1220.32
              860.97,1223.76 862.08,1224.39 864.32,1228.57
              851.63,1226.20 833.76,1213.71 824.78,1204.68
              822.09,1201.97 815.76,1196.09 815.71,1192.32 Z
            M 999.43,1192.32
            C 997.12,1197.75 992.83,1201.39 988.73,1205.49
              979.90,1214.31 962.40,1226.32 950.01,1228.57
              953.28,1223.41 955.64,1221.28 959.89,1217.04
              971.96,1204.95 983.31,1197.94 999.43,1192.32 Z"
          />
          <path
            fill="currentColor"
            d="M 583.68,875.57
            C 583.68,895.33 582.51,922.41 608.98,925.70
              612.97,926.21 617.00,925.59 620.89,924.62
              627.90,922.86 632.54,919.21 638.74,915.75
              640.82,938.50 666.88,949.50 686.36,939.15
              696.49,933.78 699.68,925.97 702.73,915.75
              719.77,928.76 743.53,931.56 753.40,908.32
              757.41,898.87 756.31,885.86 756.31,875.57
              763.77,877.51 767.57,879.28 775.66,878.28
              791.53,876.30 798.92,860.25 799.41,845.81
              799.57,840.55 798.65,836.09 797.98,830.92
              814.04,826.21 817.13,808.06 812.89,793.73
              811.33,788.46 806.62,780.47 806.54,775.86
              806.54,775.86 810.68,759.49 810.68,759.49
              812.16,751.25 810.90,742.00 807.92,734.19
              798.95,710.77 765.54,704.55 745.88,692.43
              739.52,688.51 728.57,681.79 725.95,674.67
              723.89,669.10 726.46,658.69 723.53,654.30
              719.68,648.52 709.52,652.33 702.73,650.00
              695.92,647.65 691.42,641.13 685.94,637.30
              679.45,632.74 668.54,632.33 661.06,634.28
              648.68,637.51 647.36,646.44 638.74,649.76
              631.73,652.46 620.58,648.46 616.46,654.48
              613.73,658.44 615.72,668.14 614.47,673.18
              612.77,679.92 605.55,685.07 600.05,688.78
              575.51,705.35 537.24,711.22 530.75,738.65
              529.16,745.30 528.09,751.19 529.31,758.01
              529.31,758.01 533.53,775.86 533.53,775.86
              533.35,780.45 529.92,786.22 528.31,790.75
              525.67,798.23 524.77,806.78 526.65,814.55
              529.61,826.73 537.42,827.96 540.49,832.96
              542.64,836.49 541.97,844.53 542.01,848.79
              542.33,874.91 560.93,882.95 583.68,875.57 Z
            M 797.98,772.90
            C 797.98,772.90 775.66,752.06 775.66,752.06
              775.66,752.06 731.01,707.41 731.01,707.41
              731.01,707.41 703.94,680.57 703.94,680.57
              703.94,680.57 699.77,684.53 699.77,684.53
              699.77,684.53 756.31,740.15 756.31,740.15
              756.31,740.15 786.07,769.92 786.07,769.92
              793.37,777.22 800.80,783.90 804.43,793.73
              807.36,800.42 808.15,811.17 804.43,817.48
              801.20,822.12 796.14,825.70 790.81,822.32
              786.85,819.81 771.42,796.21 767.69,790.75
              767.69,790.75 719.97,722.30 719.97,722.30
              715.96,716.64 695.34,687.51 695.34,687.51
              695.34,687.51 691.02,689.70 691.02,689.70
              691.02,689.70 735.98,755.03 735.98,755.03
              735.98,755.03 767.22,799.68 767.22,799.68
              774.63,810.45 791.00,830.22 791.89,842.83
              793.06,859.56 783.50,873.91 765.24,870.41
              760.37,869.48 756.00,867.64 752.42,864.14
              747.72,859.53 739.57,834.10 736.97,826.46
              736.97,826.46 708.06,744.62 708.06,744.62
              708.06,744.62 693.73,704.43 693.73,704.43
              692.88,702.08 689.25,693.78 689.07,691.54
              689.07,691.54 683.85,692.81 683.85,692.81
              683.85,692.81 699.48,740.15 699.48,740.15
              699.48,740.15 732.58,833.90 732.58,833.90
              737.12,846.34 749.51,877.56 750.22,888.96
              750.72,897.26 747.92,908.03 741.27,913.43
              728.75,923.59 708.64,916.81 702.95,902.35
              700.25,895.51 700.22,884.45 699.51,877.06
              699.51,877.06 695.05,832.42 695.05,832.42
              695.05,832.42 680.88,694.85 680.88,694.85
              680.88,694.85 674.88,694.99 674.88,694.99
              674.88,694.99 679.06,744.62 679.06,744.62
              679.06,744.62 689.59,850.28 689.59,850.28
              689.59,850.28 695.27,905.34 695.27,905.34
              695.45,913.41 694.96,919.40 689.88,926.10
              681.10,937.72 660.95,938.21 651.23,927.38
              645.75,921.27 644.45,913.23 644.76,905.34
              644.76,905.34 647.41,883.02 647.41,883.02
              647.41,883.02 650.40,851.76 650.40,851.76
              650.40,851.76 659.83,755.03 659.83,755.03
              659.83,755.03 665.27,695.18 665.27,695.18
              665.27,695.18 659.20,694.20 659.20,694.20
              659.20,694.20 646.44,819.03 646.44,819.03
              646.44,819.03 640.66,877.06 640.66,877.06
              639.79,884.34 639.95,893.75 637.91,900.87
              632.18,920.79 598.08,927.60 590.98,899.39
              587.06,883.85 597.63,860.81 603.30,845.81
              603.30,845.81 639.72,743.13 639.72,743.13
              639.72,743.13 656.36,692.86 656.36,692.86
              656.36,692.86 651.21,691.78 651.21,691.78
              651.21,691.78 612.03,801.16 612.03,801.16
              612.03,801.16 590.55,860.63 590.55,860.63
              585.20,870.48 567.96,874.04 558.65,868.00
              553.00,864.33 548.98,855.34 548.24,848.79
              546.36,832.11 564.71,811.50 574.12,798.20
              574.12,798.20 621.95,729.73 621.95,729.73
              628.53,720.33 649.02,689.88 649.02,689.88
              649.02,689.88 643.86,687.46 643.86,687.46
              642.14,692.43 627.14,712.29 624.37,716.34
              624.37,716.34 565.34,801.16 565.34,801.16
              562.12,805.91 552.40,821.36 547.83,823.30
              537.29,827.76 532.68,810.30 533.23,802.66
              534.38,786.14 547.70,777.34 558.38,766.92
              558.38,766.92 613.44,711.87 613.44,711.87
              620.60,704.72 631.84,689.88 640.10,685.94
              640.10,685.94 637.11,680.66 637.11,680.66
              619.48,693.30 565.34,756.71 542.01,772.90
              535.14,758.24 532.94,739.85 545.30,727.03
              552.36,719.70 569.64,712.83 579.22,708.44
              593.67,701.81 609.20,692.81 620.89,681.98
              627.39,675.95 635.29,667.96 641.09,661.28
              649.76,651.26 656.63,639.77 671.48,640.60
              684.59,641.34 691.33,652.22 699.13,661.28
              708.57,672.23 726.11,689.43 738.45,696.49
              751.07,703.72 786.52,718.54 794.51,727.03
              800.04,732.91 803.29,741.06 803.80,749.08
              804.36,758.17 801.94,764.93 797.98,772.90 Z
            M 635.76,656.81
            C 632.54,663.62 627.68,668.49 620.89,671.70
              620.91,656.85 620.92,656.83 635.76,656.81 Z
            M 717.62,658.29
            C 717.62,658.29 719.10,671.70 719.10,671.70
              712.05,668.36 709.04,665.34 705.71,658.29
              705.71,658.29 717.62,658.29 717.62,658.29 Z"
          />
        </g>
      </g>
    </chakra.svg>
  )
}
